X-channel SetVoltage(V) vs Field(mT)
-10.000000 	 -11.205000 	
-9.989995 	 -11.205000 	
-9.979990 	 -11.204000 	
-9.969985 	 -11.200000 	
-9.959980 	 -11.192000 	
-9.949975 	 -11.183000 	
-9.939970 	 -11.170000 	
-9.929965 	 -11.160000 	
-9.919960 	 -11.148000 	
-9.909955 	 -11.137000 	
-9.899950 	 -11.127000 	
-9.889945 	 -11.114000 	
-9.879940 	 -11.104000 	
-9.869935 	 -11.092000 	
-9.859930 	 -11.081000 	
-9.849925 	 -11.069000 	
-9.839920 	 -11.059000 	
-9.829915 	 -11.048000 	
-9.819910 	 -11.036000 	
-9.809905 	 -11.026000 	
-9.799900 	 -11.014000 	
-9.789895 	 -11.004000 	
-9.779890 	 -10.992000 	
-9.769885 	 -10.981000 	
-9.759880 	 -10.969000 	
-9.749875 	 -10.958000 	
-9.739870 	 -10.948000 	
-9.729865 	 -10.936000 	
-9.719860 	 -10.925000 	
-9.709855 	 -10.913000 	
-9.699850 	 -10.902000 	
-9.689845 	 -10.890000 	
-9.679840 	 -10.879000 	
-9.669835 	 -10.869000 	
-9.659830 	 -10.857000 	
-9.649825 	 -10.846000 	
-9.639820 	 -10.834000 	
-9.629815 	 -10.824000 	
-9.619810 	 -10.812000 	
-9.609805 	 -10.801000 	
-9.599800 	 -10.791000 	
-9.589795 	 -10.778000 	
-9.579790 	 -10.768000 	
-9.569785 	 -10.755000 	
-9.559780 	 -10.745000 	
-9.549775 	 -10.733000 	
-9.539770 	 -10.723000 	
-9.529765 	 -10.711000 	
-9.519760 	 -10.701000 	
-9.509755 	 -10.691000 	
-9.499750 	 -10.678000 	
-9.489745 	 -10.668000 	
-9.479740 	 -10.658000 	
-9.469735 	 -10.645000 	
-9.459730 	 -10.633000 	
-9.449725 	 -10.622000 	
-9.439720 	 -10.609000 	
-9.429715 	 -10.599000 	
-9.419710 	 -10.586000 	
-9.409705 	 -10.575000 	
-9.399700 	 -10.565000 	
-9.389695 	 -10.553000 	
-9.379690 	 -10.543000 	
-9.369685 	 -10.531000 	
-9.359680 	 -10.521000 	
-9.349675 	 -10.509000 	
-9.339670 	 -10.499000 	
-9.329665 	 -10.489000 	
-9.319660 	 -10.477000 	
-9.309655 	 -10.467000 	
-9.299650 	 -10.454000 	
-9.289645 	 -10.444000 	
-9.279640 	 -10.431000 	
-9.269635 	 -10.420000 	
-9.259630 	 -10.409000 	
-9.249625 	 -10.396000 	
-9.239620 	 -10.383000 	
-9.229615 	 -10.372000 	
-9.219610 	 -10.362000 	
-9.209605 	 -10.350000 	
-9.199600 	 -10.340000 	
-9.189595 	 -10.328000 	
-9.179590 	 -10.318000 	
-9.169585 	 -10.306000 	
-9.159580 	 -10.296000 	
-9.149575 	 -10.286000 	
-9.139570 	 -10.274000 	
-9.129565 	 -10.265000 	
-9.119560 	 -10.253000 	
-9.109555 	 -10.242000 	
-9.099550 	 -10.230000 	
-9.089545 	 -10.219000 	
-9.079540 	 -10.209000 	
-9.069535 	 -10.196000 	
-9.059530 	 -10.183000 	
-9.049525 	 -10.172000 	
-9.039520 	 -10.162000 	
-9.029515 	 -10.149000 	
-9.019510 	 -10.137000 	
-9.009505 	 -10.127000 	
-8.999500 	 -10.117000 	
-8.989495 	 -10.105000 	
-8.979490 	 -10.095000 	
-8.969485 	 -10.083000 	
-8.959480 	 -10.073000 	
-8.949475 	 -10.061000 	
-8.939470 	 -10.051000 	
-8.929465 	 -10.041000 	
-8.919460 	 -10.028000 	
-8.909455 	 -10.018000 	
-8.899450 	 -10.005000 	
-8.889445 	 -9.994000 	
-8.879440 	 -9.984000 	
-8.869435 	 -9.970000 	
-8.859430 	 -9.960000 	
-8.849425 	 -9.947000 	
-8.839420 	 -9.937000 	
-8.829415 	 -9.925000 	
-8.819410 	 -9.914000 	
-8.809405 	 -9.904000 	
-8.799400 	 -9.892000 	
-8.789395 	 -9.882000 	
-8.779390 	 -9.870000 	
-8.769385 	 -9.859000 	
-8.759380 	 -9.847000 	
-8.749375 	 -9.837000 	
-8.739370 	 -9.827000 	
-8.729365 	 -9.815000 	
-8.719360 	 -9.804000 	
-8.709355 	 -9.792000 	
-8.699350 	 -9.781000 	
-8.689345 	 -9.771000 	
-8.679340 	 -9.758000 	
-8.669335 	 -9.746000 	
-8.659330 	 -9.736000 	
-8.649325 	 -9.725000 	
-8.639320 	 -9.713000 	
-8.629315 	 -9.702000 	
-8.619310 	 -9.692000 	
-8.609305 	 -9.679000 	
-8.599300 	 -9.667000 	
-8.589295 	 -9.656000 	
-8.579290 	 -9.646000 	
-8.569285 	 -9.633000 	
-8.559280 	 -9.621000 	
-8.549275 	 -9.611000 	
-8.539270 	 -9.601000 	
-8.529265 	 -9.589000 	
-8.519260 	 -9.579000 	
-8.509255 	 -9.567000 	
-8.499250 	 -9.557000 	
-8.489245 	 -9.544000 	
-8.479240 	 -9.534000 	
-8.469235 	 -9.524000 	
-8.459230 	 -9.511000 	
-8.449225 	 -9.501000 	
-8.439220 	 -9.490000 	
-8.429215 	 -9.477000 	
-8.419210 	 -9.466000 	
-8.409205 	 -9.453000 	
-8.399200 	 -9.442000 	
-8.389195 	 -9.430000 	
-8.379190 	 -9.419000 	
-8.369185 	 -9.407000 	
-8.359180 	 -9.397000 	
-8.349175 	 -9.387000 	
-8.339170 	 -9.375000 	
-8.329165 	 -9.365000 	
-8.319160 	 -9.353000 	
-8.309155 	 -9.343000 	
-8.299150 	 -9.331000 	
-8.289145 	 -9.321000 	
-8.279140 	 -9.309000 	
-8.269135 	 -9.299000 	
-8.259130 	 -9.286000 	
-8.249125 	 -9.276000 	
-8.239120 	 -9.266000 	
-8.229115 	 -9.253000 	
-8.219110 	 -9.243000 	
-8.209105 	 -9.230000 	
-8.199100 	 -9.220000 	
-8.189095 	 -9.208000 	
-8.179090 	 -9.197000 	
-8.169085 	 -9.187000 	
-8.159080 	 -9.175000 	
-8.149075 	 -9.164000 	
-8.139070 	 -9.153000 	
-8.129065 	 -9.143000 	
-8.119060 	 -9.131000 	
-8.109055 	 -9.121000 	
-8.099050 	 -9.111000 	
-8.089045 	 -9.098000 	
-8.079040 	 -9.087000 	
-8.069035 	 -9.074000 	
-8.059030 	 -9.063000 	
-8.049025 	 -9.050000 	
-8.039020 	 -9.040000 	
-8.029015 	 -9.029000 	
-8.019010 	 -9.017000 	
-8.009005 	 -9.007000 	
-7.998999 	 -8.995000 	
-7.988994 	 -8.985000 	
-7.978989 	 -8.972000 	
-7.968984 	 -8.962000 	
-7.958979 	 -8.950000 	
-7.948974 	 -8.940000 	
-7.938969 	 -8.928000 	
-7.928964 	 -8.918000 	
-7.918959 	 -8.908000 	
-7.908954 	 -8.895000 	
-7.898949 	 -8.884000 	
-7.888944 	 -8.872000 	
-7.878939 	 -8.861000 	
-7.868934 	 -8.849000 	
-7.858929 	 -8.838000 	
-7.848924 	 -8.826000 	
-7.838919 	 -8.816000 	
-7.828914 	 -8.805000 	
-7.818909 	 -8.793000 	
-7.808904 	 -8.783000 	
-7.798899 	 -8.773000 	
-7.788894 	 -8.760000 	
-7.778889 	 -8.750000 	
-7.768884 	 -8.737000 	
-7.758879 	 -8.727000 	
-7.748874 	 -8.714000 	
-7.738869 	 -8.704000 	
-7.728864 	 -8.693000 	
-7.718859 	 -8.681000 	
-7.708854 	 -8.671000 	
-7.698849 	 -8.658000 	
-7.688844 	 -8.648000 	
-7.678839 	 -8.635000 	
-7.668834 	 -8.625000 	
-7.658829 	 -8.613000 	
-7.648824 	 -8.602000 	
-7.638819 	 -8.592000 	
-7.628814 	 -8.579000 	
-7.618809 	 -8.569000 	
-7.608804 	 -8.557000 	
-7.598799 	 -8.546000 	
-7.588794 	 -8.534000 	
-7.578789 	 -8.524000 	
-7.568784 	 -8.513000 	
-7.558779 	 -8.500000 	
-7.548774 	 -8.490000 	
-7.538769 	 -8.477000 	
-7.528764 	 -8.467000 	
-7.518759 	 -8.454000 	
-7.508754 	 -8.444000 	
-7.498749 	 -8.434000 	
-7.488744 	 -8.422000 	
-7.478739 	 -8.412000 	
-7.468734 	 -8.400000 	
-7.458729 	 -8.390000 	
-7.448724 	 -8.379000 	
-7.438719 	 -8.367000 	
-7.428714 	 -8.357000 	
-7.418709 	 -8.344000 	
-7.408704 	 -8.334000 	
-7.398699 	 -8.321000 	
-7.388694 	 -8.310000 	
-7.378689 	 -8.300000 	
-7.368684 	 -8.286000 	
-7.358679 	 -8.276000 	
-7.348674 	 -8.265000 	
-7.338669 	 -8.252000 	
-7.328664 	 -8.241000 	
-7.318659 	 -8.231000 	
-7.308654 	 -8.221000 	
-7.298649 	 -8.209000 	
-7.288644 	 -8.199000 	
-7.278639 	 -8.187000 	
-7.268634 	 -8.177000 	
-7.258629 	 -8.167000 	
-7.248624 	 -8.154000 	
-7.238619 	 -8.144000 	
-7.228614 	 -8.131000 	
-7.218609 	 -8.120000 	
-7.208604 	 -8.108000 	
-7.198599 	 -8.097000 	
-7.188594 	 -8.084000 	
-7.178589 	 -8.074000 	
-7.168584 	 -8.061000 	
-7.158579 	 -8.051000 	
-7.148574 	 -8.041000 	
-7.138569 	 -8.029000 	
-7.128564 	 -8.019000 	
-7.118559 	 -8.008000 	
-7.108554 	 -7.996000 	
-7.098549 	 -7.986000 	
-7.088544 	 -7.974000 	
-7.078539 	 -7.964000 	
-7.068534 	 -7.952000 	
-7.058529 	 -7.941000 	
-7.048524 	 -7.931000 	
-7.038519 	 -7.918000 	
-7.028514 	 -7.905000 	
-7.018509 	 -7.895000 	
-7.008504 	 -7.885000 	
-6.998499 	 -7.873000 	
-6.988494 	 -7.862000 	
-6.978489 	 -7.850000 	
-6.968484 	 -7.840000 	
-6.958479 	 -7.827000 	
-6.948474 	 -7.816000 	
-6.938469 	 -7.804000 	
-6.928464 	 -7.793000 	
-6.918459 	 -7.783000 	
-6.908454 	 -7.771000 	
-6.898449 	 -7.761000 	
-6.888444 	 -7.749000 	
-6.878439 	 -7.738000 	
-6.868434 	 -7.726000 	
-6.858429 	 -7.715000 	
-6.848424 	 -7.703000 	
-6.838419 	 -7.692000 	
-6.828414 	 -7.682000 	
-6.818409 	 -7.669000 	
-6.808404 	 -7.659000 	
-6.798399 	 -7.646000 	
-6.788394 	 -7.636000 	
-6.778389 	 -7.624000 	
-6.768384 	 -7.614000 	
-6.758379 	 -7.601000 	
-6.748374 	 -7.591000 	
-6.738369 	 -7.578000 	
-6.728364 	 -7.568000 	
-6.718359 	 -7.556000 	
-6.708354 	 -7.545000 	
-6.698349 	 -7.533000 	
-6.688344 	 -7.523000 	
-6.678339 	 -7.513000 	
-6.668334 	 -7.501000 	
-6.658329 	 -7.491000 	
-6.648324 	 -7.479000 	
-6.638319 	 -7.468000 	
-6.628314 	 -7.456000 	
-6.618309 	 -7.446000 	
-6.608304 	 -7.436000 	
-6.598299 	 -7.423000 	
-6.588294 	 -7.413000 	
-6.578289 	 -7.400000 	
-6.568284 	 -7.389000 	
-6.558279 	 -7.376000 	
-6.548274 	 -7.365000 	
-6.538269 	 -7.352000 	
-6.528264 	 -7.341000 	
-6.518259 	 -7.331000 	
-6.508254 	 -7.318000 	
-6.498249 	 -7.307000 	
-6.488244 	 -7.297000 	
-6.478239 	 -7.285000 	
-6.468234 	 -7.273000 	
-6.458229 	 -7.263000 	
-6.448224 	 -7.253000 	
-6.438219 	 -7.241000 	
-6.428214 	 -7.230000 	
-6.418209 	 -7.217000 	
-6.408204 	 -7.207000 	
-6.398199 	 -7.196000 	
-6.388194 	 -7.184000 	
-6.378189 	 -7.174000 	
-6.368184 	 -7.161000 	
-6.358179 	 -7.151000 	
-6.348174 	 -7.138000 	
-6.338169 	 -7.128000 	
-6.328164 	 -7.116000 	
-6.318159 	 -7.106000 	
-6.308154 	 -7.094000 	
-6.298149 	 -7.084000 	
-6.288144 	 -7.074000 	
-6.278139 	 -7.062000 	
-6.268134 	 -7.052000 	
-6.258129 	 -7.040000 	
-6.248124 	 -7.030000 	
-6.238119 	 -7.017000 	
-6.228114 	 -7.007000 	
-6.218109 	 -6.996000 	
-6.208104 	 -6.983000 	
-6.198099 	 -6.972000 	
-6.188094 	 -6.962000 	
-6.178089 	 -6.949000 	
-6.168084 	 -6.937000 	
-6.158079 	 -6.926000 	
-6.148074 	 -6.916000 	
-6.138069 	 -6.904000 	
-6.128064 	 -6.893000 	
-6.118059 	 -6.881000 	
-6.108054 	 -6.870000 	
-6.098049 	 -6.860000 	
-6.088044 	 -6.848000 	
-6.078039 	 -6.836000 	
-6.068034 	 -6.826000 	
-6.058029 	 -6.815000 	
-6.048024 	 -6.803000 	
-6.038019 	 -6.791000 	
-6.028014 	 -6.781000 	
-6.018009 	 -6.771000 	
-6.008004 	 -6.758000 	
-5.997999 	 -6.747000 	
-5.987994 	 -6.735000 	
-5.977989 	 -6.724000 	
-5.967984 	 -6.712000 	
-5.957979 	 -6.701000 	
-5.947974 	 -6.690000 	
-5.937969 	 -6.678000 	
-5.927964 	 -6.668000 	
-5.917959 	 -6.658000 	
-5.907954 	 -6.645000 	
-5.897949 	 -6.635000 	
-5.887944 	 -6.623000 	
-5.877939 	 -6.612000 	
-5.867934 	 -6.600000 	
-5.857929 	 -6.590000 	
-5.847924 	 -6.580000 	
-5.837919 	 -6.568000 	
-5.827914 	 -6.557000 	
-5.817909 	 -6.545000 	
-5.807904 	 -6.534000 	
-5.797899 	 -6.523000 	
-5.787894 	 -6.511000 	
-5.777889 	 -6.499000 	
-5.767884 	 -6.488000 	
-5.757879 	 -6.478000 	
-5.747874 	 -6.466000 	
-5.737869 	 -6.456000 	
-5.727864 	 -6.443000 	
-5.717859 	 -6.433000 	
-5.707854 	 -6.420000 	
-5.697849 	 -6.409000 	
-5.687844 	 -6.399000 	
-5.677839 	 -6.386000 	
-5.667834 	 -6.376000 	
-5.657829 	 -6.366000 	
-5.647824 	 -6.354000 	
-5.637819 	 -6.344000 	
-5.627814 	 -6.332000 	
-5.617809 	 -6.321000 	
-5.607804 	 -6.309000 	
-5.597799 	 -6.298000 	
-5.587794 	 -6.286000 	
-5.577789 	 -6.275000 	
-5.567784 	 -6.263000 	
-5.557779 	 -6.252000 	
-5.547774 	 -6.240000 	
-5.537769 	 -6.229000 	
-5.527764 	 -6.217000 	
-5.517759 	 -6.206000 	
-5.507754 	 -6.194000 	
-5.497749 	 -6.184000 	
-5.487744 	 -6.172000 	
-5.477739 	 -6.162000 	
-5.467734 	 -6.153000 	
-5.457729 	 -6.141000 	
-5.447724 	 -6.129000 	
-5.437719 	 -6.119000 	
-5.427714 	 -6.110000 	
-5.417709 	 -6.097000 	
-5.407704 	 -6.087000 	
-5.397699 	 -6.076000 	
-5.387694 	 -6.063000 	
-5.377689 	 -6.052000 	
-5.367684 	 -6.039000 	
-5.357679 	 -6.029000 	
-5.347674 	 -6.016000 	
-5.337669 	 -6.006000 	
-5.327664 	 -5.995000 	
-5.317659 	 -5.983000 	
-5.307654 	 -5.972000 	
-5.297649 	 -5.960000 	
-5.287644 	 -5.950000 	
-5.277639 	 -5.937000 	
-5.267634 	 -5.928000 	
-5.257629 	 -5.916000 	
-5.247624 	 -5.906000 	
-5.237619 	 -5.895000 	
-5.227614 	 -5.883000 	
-5.217609 	 -5.873000 	
-5.207604 	 -5.860000 	
-5.197599 	 -5.849000 	
-5.187594 	 -5.836000 	
-5.177589 	 -5.825000 	
-5.167584 	 -5.812000 	
-5.157579 	 -5.802000 	
-5.147574 	 -5.789000 	
-5.137569 	 -5.779000 	
-5.127564 	 -5.769000 	
-5.117559 	 -5.756000 	
-5.107554 	 -5.746000 	
-5.097549 	 -5.734000 	
-5.087544 	 -5.724000 	
-5.077539 	 -5.712000 	
-5.067534 	 -5.702000 	
-5.057529 	 -5.692000 	
-5.047524 	 -5.680000 	
-5.037519 	 -5.668000 	
-5.027514 	 -5.657000 	
-5.017509 	 -5.647000 	
-5.007504 	 -5.635000 	
-4.997499 	 -5.624000 	
-4.987494 	 -5.612000 	
-4.977489 	 -5.602000 	
-4.967484 	 -5.589000 	
-4.957479 	 -5.579000 	
-4.947474 	 -5.569000 	
-4.937469 	 -5.557000 	
-4.927464 	 -5.546000 	
-4.917459 	 -5.534000 	
-4.907454 	 -5.524000 	
-4.897449 	 -5.511000 	
-4.887444 	 -5.501000 	
-4.877439 	 -5.490000 	
-4.867434 	 -5.477000 	
-4.857429 	 -5.464000 	
-4.847424 	 -5.454000 	
-4.837419 	 -5.444000 	
-4.827414 	 -5.432000 	
-4.817409 	 -5.422000 	
-4.807404 	 -5.409000 	
-4.797399 	 -5.399000 	
-4.787394 	 -5.388000 	
-4.777389 	 -5.375000 	
-4.767384 	 -5.365000 	
-4.757379 	 -5.353000 	
-4.747374 	 -5.342000 	
-4.737369 	 -5.330000 	
-4.727364 	 -5.320000 	
-4.717359 	 -5.307000 	
-4.707354 	 -5.297000 	
-4.697349 	 -5.284000 	
-4.687344 	 -5.273000 	
-4.677339 	 -5.263000 	
-4.667334 	 -5.251000 	
-4.657329 	 -5.238000 	
-4.647324 	 -5.228000 	
-4.637319 	 -5.218000 	
-4.627314 	 -5.206000 	
-4.617309 	 -5.197000 	
-4.607304 	 -5.185000 	
-4.597299 	 -5.175000 	
-4.587294 	 -5.163000 	
-4.577289 	 -5.153000 	
-4.567284 	 -5.142000 	
-4.557279 	 -5.130000 	
-4.547274 	 -5.117000 	
-4.537269 	 -5.107000 	
-4.527264 	 -5.097000 	
-4.517259 	 -5.084000 	
-4.507254 	 -5.073000 	
-4.497249 	 -5.061000 	
-4.487244 	 -5.050000 	
-4.477239 	 -5.037000 	
-4.467234 	 -5.027000 	
-4.457229 	 -5.015000 	
-4.447224 	 -5.005000 	
-4.437219 	 -4.993000 	
-4.427214 	 -4.983000 	
-4.417209 	 -4.973000 	
-4.407204 	 -4.961000 	
-4.397199 	 -4.951000 	
-4.387194 	 -4.938000 	
-4.377189 	 -4.927000 	
-4.367184 	 -4.914000 	
-4.357179 	 -4.903000 	
-4.347174 	 -4.892000 	
-4.337169 	 -4.880000 	
-4.327164 	 -4.869000 	
-4.317159 	 -4.857000 	
-4.307154 	 -4.847000 	
-4.297149 	 -4.834000 	
-4.287144 	 -4.824000 	
-4.277139 	 -4.813000 	
-4.267134 	 -4.801000 	
-4.257129 	 -4.791000 	
-4.247124 	 -4.779000 	
-4.237119 	 -4.769000 	
-4.227114 	 -4.759000 	
-4.217109 	 -4.747000 	
-4.207104 	 -4.737000 	
-4.197099 	 -4.724000 	
-4.187094 	 -4.714000 	
-4.177089 	 -4.701000 	
-4.167084 	 -4.690000 	
-4.157079 	 -4.680000 	
-4.147074 	 -4.667000 	
-4.137069 	 -4.657000 	
-4.127064 	 -4.645000 	
-4.117059 	 -4.634000 	
-4.107054 	 -4.622000 	
-4.097049 	 -4.612000 	
-4.087044 	 -4.602000 	
-4.077039 	 -4.589000 	
-4.067034 	 -4.579000 	
-4.057029 	 -4.567000 	
-4.047024 	 -4.556000 	
-4.037019 	 -4.544000 	
-4.027014 	 -4.534000 	
-4.017009 	 -4.524000 	
-4.007004 	 -4.512000 	
-3.996998 	 -4.500000 	
-3.986993 	 -4.489000 	
-3.976988 	 -4.479000 	
-3.966983 	 -4.467000 	
-3.956978 	 -4.456000 	
-3.946973 	 -4.444000 	
-3.936968 	 -4.433000 	
-3.926963 	 -4.422000 	
-3.916958 	 -4.410000 	
-3.906953 	 -4.400000 	
-3.896948 	 -4.387000 	
-3.886943 	 -4.377000 	
-3.876938 	 -4.365000 	
-3.866933 	 -4.354000 	
-3.856928 	 -4.344000 	
-3.846923 	 -4.331000 	
-3.836918 	 -4.321000 	
-3.826913 	 -4.311000 	
-3.816908 	 -4.298000 	
-3.806903 	 -4.288000 	
-3.796898 	 -4.275000 	
-3.786893 	 -4.265000 	
-3.776888 	 -4.253000 	
-3.766883 	 -4.243000 	
-3.756878 	 -4.231000 	
-3.746873 	 -4.220000 	
-3.736868 	 -4.210000 	
-3.726863 	 -4.198000 	
-3.716858 	 -4.188000 	
-3.706853 	 -4.175000 	
-3.696848 	 -4.165000 	
-3.686843 	 -4.152000 	
-3.676838 	 -4.142000 	
-3.666833 	 -4.131000 	
-3.656828 	 -4.118000 	
-3.646823 	 -4.106000 	
-3.636818 	 -4.095000 	
-3.626813 	 -4.085000 	
-3.616808 	 -4.073000 	
-3.606803 	 -4.063000 	
-3.596798 	 -4.051000 	
-3.586793 	 -4.041000 	
-3.576788 	 -4.029000 	
-3.566783 	 -4.019000 	
-3.556778 	 -4.009000 	
-3.546773 	 -3.996000 	
-3.536768 	 -3.986000 	
-3.526763 	 -3.973000 	
-3.516758 	 -3.962000 	
-3.506753 	 -3.949000 	
-3.496748 	 -3.938000 	
-3.486743 	 -3.928000 	
-3.476738 	 -3.915000 	
-3.466733 	 -3.905000 	
-3.456728 	 -3.892000 	
-3.446723 	 -3.882000 	
-3.436718 	 -3.870000 	
-3.426713 	 -3.860000 	
-3.416708 	 -3.848000 	
-3.406703 	 -3.838000 	
-3.396698 	 -3.828000 	
-3.386693 	 -3.815000 	
-3.376688 	 -3.806000 	
-3.366683 	 -3.796000 	
-3.356678 	 -3.783000 	
-3.346673 	 -3.772000 	
-3.336668 	 -3.759000 	
-3.326663 	 -3.749000 	
-3.316658 	 -3.736000 	
-3.306653 	 -3.725000 	
-3.296648 	 -3.715000 	
-3.286643 	 -3.703000 	
-3.276638 	 -3.692000 	
-3.266633 	 -3.680000 	
-3.256628 	 -3.669000 	
-3.246623 	 -3.657000 	
-3.236618 	 -3.647000 	
-3.226613 	 -3.636000 	
-3.216608 	 -3.627000 	
-3.206603 	 -3.616000 	
-3.196598 	 -3.608000 	
-3.186593 	 -3.599000 	
-3.176588 	 -3.591000 	
-3.166583 	 -3.583000 	
-3.156578 	 -3.572000 	
-3.146573 	 -3.563000 	
-3.136568 	 -3.552000 	
-3.126563 	 -3.542000 	
-3.116558 	 -3.530000 	
-3.106553 	 -3.519000 	
-3.096548 	 -3.506000 	
-3.086543 	 -3.496000 	
-3.076538 	 -3.483000 	
-3.066533 	 -3.472000 	
-3.056528 	 -3.461000 	
-3.046523 	 -3.448000 	
-3.036518 	 -3.438000 	
-3.026513 	 -3.427000 	
-3.016508 	 -3.414000 	
-3.006503 	 -3.404000 	
-2.996498 	 -3.392000 	
-2.986493 	 -3.382000 	
-2.976488 	 -3.370000 	
-2.966483 	 -3.358000 	
-2.956478 	 -3.348000 	
-2.946473 	 -3.338000 	
-2.936468 	 -3.326000 	
-2.926463 	 -3.316000 	
-2.916458 	 -3.304000 	
-2.906453 	 -3.294000 	
-2.896448 	 -3.281000 	
-2.886443 	 -3.271000 	
-2.876438 	 -3.258000 	
-2.866433 	 -3.247000 	
-2.856428 	 -3.235000 	
-2.846423 	 -3.224000 	
-2.836418 	 -3.214000 	
-2.826413 	 -3.201000 	
-2.816408 	 -3.191000 	
-2.806403 	 -3.180000 	
-2.796398 	 -3.168000 	
-2.786393 	 -3.158000 	
-2.776388 	 -3.146000 	
-2.766383 	 -3.136000 	
-2.756378 	 -3.124000 	
-2.746373 	 -3.114000 	
-2.736368 	 -3.103000 	
-2.726363 	 -3.091000 	
-2.716358 	 -3.080000 	
-2.706353 	 -3.067000 	
-2.696348 	 -3.057000 	
-2.686343 	 -3.044000 	
-2.676338 	 -3.034000 	
-2.666333 	 -3.021000 	
-2.656328 	 -3.011000 	
-2.646323 	 -2.998000 	
-2.636318 	 -2.988000 	
-2.626313 	 -2.977000 	
-2.616308 	 -2.965000 	
-2.606303 	 -2.952000 	
-2.596298 	 -2.942000 	
-2.586293 	 -2.932000 	
-2.576288 	 -2.920000 	
-2.566283 	 -2.910000 	
-2.556278 	 -2.898000 	
-2.546273 	 -2.888000 	
-2.536268 	 -2.878000 	
-2.526263 	 -2.866000 	
-2.516258 	 -2.856000 	
-2.506253 	 -2.844000 	
-2.496248 	 -2.834000 	
-2.486243 	 -2.821000 	
-2.476238 	 -2.811000 	
-2.466233 	 -2.801000 	
-2.456228 	 -2.788000 	
-2.446223 	 -2.777000 	
-2.436218 	 -2.764000 	
-2.426213 	 -2.754000 	
-2.416208 	 -2.741000 	
-2.406203 	 -2.731000 	
-2.396198 	 -2.718000 	
-2.386193 	 -2.708000 	
-2.376188 	 -2.696000 	
-2.366183 	 -2.686000 	
-2.356178 	 -2.676000 	
-2.346173 	 -2.663000 	
-2.336168 	 -2.653000 	
-2.326163 	 -2.641000 	
-2.316158 	 -2.631000 	
-2.306153 	 -2.619000 	
-2.296148 	 -2.609000 	
-2.286143 	 -2.598000 	
-2.276138 	 -2.586000 	
-2.266133 	 -2.575000 	
-2.256128 	 -2.563000 	
-2.246123 	 -2.552000 	
-2.236118 	 -2.540000 	
-2.226113 	 -2.529000 	
-2.216108 	 -2.519000 	
-2.206103 	 -2.506000 	
-2.196098 	 -2.496000 	
-2.186093 	 -2.484000 	
-2.176088 	 -2.473000 	
-2.166083 	 -2.463000 	
-2.156078 	 -2.450000 	
-2.146073 	 -2.440000 	
-2.136068 	 -2.428000 	
-2.126063 	 -2.418000 	
-2.116058 	 -2.406000 	
-2.106053 	 -2.396000 	
-2.096048 	 -2.386000 	
-2.086043 	 -2.374000 	
-2.076038 	 -2.361000 	
-2.066033 	 -2.351000 	
-2.056028 	 -2.340000 	
-2.046023 	 -2.327000 	
-2.036018 	 -2.317000 	
-2.026013 	 -2.306000 	
-2.016008 	 -2.293000 	
-2.006003 	 -2.283000 	
-1.995998 	 -2.270000 	
-1.985993 	 -2.260000 	
-1.975988 	 -2.247000 	
-1.965983 	 -2.237000 	
-1.955978 	 -2.225000 	
-1.945973 	 -2.215000 	
-1.935968 	 -2.205000 	
-1.925963 	 -2.193000 	
-1.915958 	 -2.183000 	
-1.905953 	 -2.173000 	
-1.895948 	 -2.160000 	
-1.885943 	 -2.150000 	
-1.875938 	 -2.137000 	
-1.865933 	 -2.126000 	
-1.855928 	 -2.114000 	
-1.845923 	 -2.103000 	
-1.835918 	 -2.093000 	
-1.825913 	 -2.080000 	
-1.815908 	 -2.069000 	
-1.805903 	 -2.056000 	
-1.795898 	 -2.046000 	
-1.785893 	 -2.033000 	
-1.775888 	 -2.023000 	
-1.765883 	 -2.011000 	
-1.755878 	 -2.001000 	
-1.745873 	 -1.989000 	
-1.735868 	 -1.979000 	
